File: XRD_csv/CCM-14D 1.csv
Angle,Intensity
5.99618,888
6.28027,814
6.56436,766
6.84845,644
7.13254,625
7.41664,604
7.70073,564
7.98482,572
8.26891,536
8.553,532
8.83709,517
9.12119,629
9.40528,500
9.68937,496
9.97346,481
10.2576,445
10.5416,429
10.8257,465
11.1098,459
11.3939,416
11.678,401
11.9621,356
12.2462,406
12.5303,339
12.8144,358
13.0985,348
13.3826,335
13.6667,414
13.9507,321
14.2348,306
14.5189,302
14.803,291
15.0871,302
15.3712,336
15.6553,342
15.9394,322
16.2235,332
16.5076,339
16.7917,284
17.0757,267
17.3598,271
17.6439,267
17.928,333
18.2121,311
18.4962,239
18.7803,283
19.0644,288
19.3485,272
19.6326,282
19.9167,285
20.2008,244
20.4848,233
20.7689,353
21.053,354
21.3371,238
21.6212,250
21.9053,261
22.1894,284
22.4735,260
22.7576,278
23.0417,332
23.3258,280
23.6099,333
23.8939,261
24.178,253
24.4621,250
24.7462,282
25.0303,282
25.3144,230
25.5985,308
25.8826,286
26.1667,279
26.4508,553
26.7349,1689
27.019,401
27.303,451
27.5871,523
27.8712,348
28.1553,369
28.4394,273
28.7235,283
29.0076,283
29.2917,417
29.5758,364
29.8599,296
30.144,280
30.4281,292
30.7121,285
30.9962,310
31.2803,263
31.5644,248
31.8485,231
32.1326,345
32.4167,297
32.7008,312
32.9849,248
33.269,241
33.5531,242
33.8372,282
34.1212,348
34.4053,226
34.6894,236
34.9735,231
35.2576,238
35.5417,220
35.8258,199
36.1099,211
36.394,180
36.6781,252
36.9622,225
37.2463,182
37.5303,195
37.8144,203
38.0985,186
38.3826,183
38.6667,185
38.9508,185
39.2349,208
39.519,304
39.8031,177
40.0872,157
40.3713,201
40.6553,183
40.9394,228
41.2235,220
41.5076,178
41.7917,204
42.0758,207
42.3599,176
42.644,192
42.9281,190
43.2122,176
43.4963,186
43.7804,176
44.0644,200
44.3485,212
44.6326,168
44.9167,158
45.2008,144
45.4849,150
45.769,264
46.0531,157
46.3372,172
46.6213,180
46.9054,168
47.1895,226
47.4735,185
47.7576,165
48.0417,183
48.3258,204
48.6099,172
48.894,166
49.1781,156
49.4622,162
49.7463,161
50.0304,206
50.3145,193
50.5986,214
50.8826,167
51.1667,163
51.4508,143
51.7349,157
52.019,142
52.3031,152
52.5872,129
52.8713,136
53.1554,145
53.4395,155
53.7236,146
54.0077,156
54.2917,143
54.5758,154
54.8599,164
55.144,175
55.4281,163
55.7122,115
55.9963,164
56.2804,124
56.5645,161
56.8486,157
57.1327,143
57.4168,150
57.7008,152
57.9849,131
58.269,131
58.5531,145
58.8372,167
59.1213,114
59.4054,134
59.6895,135
59.9736,676
60.2577,142
60.5418,167
60.8259,133
61.1099,129
61.394,125
61.6781,141
61.9622,128
62.2463,130
62.5304,163
62.8145,130
63.0986,143
63.3827,126
63.6668,125
63.9509,144
64.235,136
64.519,137
64.8031,142
65.0872,129
65.3713,109
65.6554,131
65.9395,140
66.2236,126
66.5077,111
66.7918,120
67.0759,141
67.36,111
67.644,133
67.9281,175
68.2122,216
68.4963,203
68.7804,103
69.0645,125
69.3486,120
69.6327,132
69.9168,124
70.2009,99
70.485,120
70.7691,111
71.0531,122
71.3372,116
71.6213,130
71.9054,107
72.1895,112
72.4736,99
72.7577,118
73.0418,99
73.3259,121
73.61,111
73.8941,135
74.1782,116
74.4622,107
74.7463,102
75.0304,131
75.3145,120
75.5986,122
75.8827,118
76.1668,105
76.4509,123
76.735,93
77.0191,104
77.3032,103
77.5873,105
77.8713,107
78.1554,111
78.4395,101
78.7236,97
79.0077,98
79.2918,105
79.5759,96
79.86,130
80.1441,123
80.4282,93
80.7123,109
80.9964,121
81.2804,108
81.5645,123
81.8486,110
82.1327,102
82.4168,104
82.7009,90
82.985,107
83.2691,104
83.5532,103
83.8373,142
84.1214,112
84.4055,105
84.6895,87
84.9736,97
85.2577,100
85.5418,101
85.8259,100
86.11,107
86.3941,92
86.6782,92
86.9623,91
87.2464,94
87.5305,105
87.8146,91
88.0986,90
88.3827,104
88.6668,83
88.9509,96
89.235,98
89.5191,119
89.8032,91
89.9954,129