File: XRD_csv/CCM-14D 2.csv
Angle,Intensity
5.99618,818
6.28027,740
6.56436,679
6.84845,683
7.13254,597
7.41664,545
7.70073,570
7.98482,553
8.26891,480
8.553,516
8.83709,544
9.12119,626
9.40528,475
9.68937,435
9.97346,485
10.2576,425
10.5416,422
10.8257,444
11.1098,420
11.3939,414
11.678,389
11.9621,369
12.2462,338
12.5303,342
12.8144,326
13.0985,404
13.3826,334
13.6667,352
13.9507,327
14.2348,313
14.5189,281
14.803,284
15.0871,308
15.3712,292
15.6553,299
15.9394,318
16.2235,324
16.5076,284
16.7917,296
17.0757,291
17.3598,251
17.6439,257
17.928,336
18.2121,278
18.4962,271
18.7803,270
19.0644,252
19.3485,270
19.6326,230
19.9167,272
20.2008,290
20.4848,264
20.7689,463
21.053,304
21.3371,232
21.6212,243
21.9053,214
22.1894,257
22.4735,230
22.7576,282
23.0417,344
23.3258,276
23.6099,357
23.8939,264
24.178,272
24.4621,246
24.7462,289
25.0303,233
25.3144,238
25.5985,290
25.8826,286
26.1667,336
26.4508,477
26.7349,1782
27.019,336
27.303,321
27.5871,325
27.8712,587
28.1553,314
28.4394,262
28.7235,312
29.0076,316
29.2917,360
29.5758,355
29.8599,278
30.144,321
30.4281,269
30.7121,310
30.9962,332
31.2803,251
31.5644,267
31.8485,243
32.1326,337
32.4167,299
32.7008,285
32.9849,257
33.269,271
33.5531,282
33.8372,268
34.1212,334
34.4053,259
34.6894,231
34.9735,249
35.2576,281
35.5417,233
35.8258,220
36.1099,246
36.394,267
36.6781,387
36.9622,196
37.2463,200
37.5303,190
37.8144,185
38.0985,178
38.3826,183
38.6667,198
38.9508,184
39.2349,196
39.519,290
39.8031,164
40.0872,178
40.3713,197
40.6553,205
40.9394,232
41.2235,204
41.5076,171
41.7917,210
42.0758,177
42.3599,198
42.644,175
42.9281,176
43.2122,175
43.4963,160
43.7804,186
44.0644,196
44.3485,168
44.6326,167
44.9167,172
45.2008,162
45.4849,175
45.769,243
46.0531,144
46.3372,162
46.6213,165
46.9054,152
47.1895,193
47.4735,188
47.7576,147
48.0417,157
48.3258,160
48.6099,165
48.894,203
49.1781,208
49.4622,167
49.7463,180
50.0304,246
50.3145,204
50.5986,168
50.8826,179
51.1667,136
51.4508,120
51.7349,136
52.019,131
52.3031,136
52.5872,148
52.8713,165
53.1554,141
53.4395,169
53.7236,152
54.0077,146
54.2917,166
54.5758,139
54.8599,165
55.144,172
55.4281,154
55.7122,151
55.9963,137
56.2804,136
56.5645,129
56.8486,126
57.1327,139
57.4168,141
57.7008,148
57.9849,125
58.269,146
58.5531,153
58.8372,156
59.1213,139
59.4054,146
59.6895,153
59.9736,336
60.2577,156
60.5418,160
60.8259,140
61.1099,132
61.394,133
61.6781,153
61.9622,140
62.2463,126
62.5304,153
62.8145,128
63.0986,151
63.3827,122
63.6668,115
63.9509,148
64.235,135
64.519,102
64.8031,131
65.0872,109
65.3713,146
65.6554,137
65.9395,141
66.2236,143
66.5077,118
66.7918,131
67.0759,125
67.36,119
67.644,141
67.9281,182
68.2122,143
68.4963,160
68.7804,109
69.0645,119
69.3486,113
69.6327,134
69.9168,132
70.2009,123
70.485,124
70.7691,115
71.0531,114
71.3372,116
71.6213,100
71.9054,126
72.1895,113
72.4736,105
72.7577,103
73.0418,112
73.3259,112
73.61,105
73.8941,110
74.1782,116
74.4622,120
74.7463,116
75.0304,121
75.3145,115
75.5986,143
75.8827,130
76.1668,113
76.4509,96
76.735,112
77.0191,100
77.3032,120
77.5873,367
77.8713,365
78.1554,101
78.4395,118
78.7236,107
79.0077,97
79.2918,119
79.5759,89
79.86,123
80.1441,118
80.4282,101
80.7123,113
80.9964,126
81.2804,123
81.5645,108
81.8486,109
82.1327,123
82.4168,93
82.7009,110
82.985,92
83.2691,94
83.5532,97
83.8373,110
84.1214,122
84.4055,97
84.6895,92
84.9736,98
85.2577,102
85.5418,93
85.8259,86
86.11,108
86.3941,87
86.6782,87
86.9623,94
87.2464,111
87.5305,101
87.8146,101
88.0986,89
88.3827,99
88.6668,111
88.9509,103
89.235,96
89.5191,76
89.8032,87
89.9954,89