File: XRD_csv/OPC-3D 2.csv
Angle,Intensity
5.99618,720
6.28027,681
6.56436,662
6.84845,584
7.13254,498
7.41664,518
7.70073,504
7.98482,495
8.26891,457
8.553,445
8.83709,440
9.12119,470
9.40528,438
9.68937,374
9.97346,364
10.2576,344
10.5416,381
10.8257,325
11.1098,340
11.3939,322
11.678,322
11.9621,307
12.2462,339
12.5303,271
12.8144,270
13.0985,307
13.3826,247
13.6667,313
13.9507,265
14.2348,252
14.5189,256
14.803,258
15.0871,222
15.3712,239
15.6553,240
15.9394,242
16.2235,207
16.5076,209
16.7917,211
17.0757,203
17.3598,183
17.6439,205
17.928,247
18.2121,269
18.4962,209
18.7803,203
19.0644,173
19.3485,186
19.6326,185
19.9167,160
20.2008,175
20.4848,180
20.7689,174
21.053,172
21.3371,150
21.6212,172
21.9053,153
22.1894,166
22.4735,163
22.7576,169
23.0417,167
23.3258,196
23.6099,189
23.8939,167
24.178,143
24.4621,174
24.7462,135
25.0303,173
25.3144,155
25.5985,200
25.8826,163
26.1667,172
26.4508,215
26.7349,13175
27.019,200
27.303,162
27.5871,199
27.8712,152
28.1553,177
28.4394,150
28.7235,210
29.0076,140
29.2917,206
29.5758,225
29.8599,144
30.144,154
30.4281,164
30.7121,171
30.9962,122
31.2803,112
31.5644,136
31.8485,126
32.1326,179
32.4167,146
32.7008,145
32.9849,144
33.269,113
33.5531,155
33.8372,162
34.1212,400
34.4053,165
34.6894,112
34.9735,377
35.2576,368
35.5417,316
35.8258,174
36.1099,120
36.394,87
36.6781,102
36.9622,98
37.2463,122
37.5303,100
37.8144,98
38.0985,88
38.3826,93
38.6667,101
38.9508,79
39.2349,82
39.519,142
39.8031,102
40.0872,82
40.3713,82
40.6553,108
40.9394,103
41.2235,112
41.5076,73
41.7917,84
42.0758,86
42.3599,100
42.644,110
42.9281,99
43.2122,113
43.4963,79
43.7804,79
44.0644,104
44.3485,69
44.6326,96
44.9167,82
45.2008,86
45.4849,80
45.769,111
46.0531,79
46.3372,66
46.6213,97
46.9054,93
47.1895,220
47.4735,141
47.7576,96
48.0417,69
48.3258,78
48.6099,84
48.894,59
49.1781,83
49.4622,78
49.7463,82
50.0304,101
50.3145,102
50.5986,116
50.8826,175
51.1667,94
51.4508,84
51.7349,108
52.019,65
52.3031,58
52.5872,77
52.8713,82
53.1554,89
53.4395,64
53.7236,84
54.0077,67
54.2917,98
54.5758,84
54.8599,79
55.144,83
55.4281,153
55.7122,91
55.9963,78
56.2804,79
56.5645,75
56.8486,73
57.1327,77
57.4168,88
57.7008,88
57.9849,75
58.269,78
58.5531,69
58.8372,84
59.1213,71
59.4054,87
59.6895,93
59.9736,779
60.2577,261
60.5418,98
60.8259,75
61.1099,76
61.394,76
61.6781,72
61.9622,75
62.2463,82
62.5304,75
62.8145,73
63.0986,107
63.3827,171
63.6668,77
63.9509,80
64.235,135
64.519,89
64.8031,93
65.0872,90
65.3713,72
65.6554,78
65.9395,65
66.2236,72
66.5077,83
66.7918,50
67.0759,65
67.36,68
67.644,73
67.9281,89
68.2122,83
68.4963,89
68.7804,78
69.0645,81
69.3486,75
69.6327,61
69.9168,68
70.2009,68
70.485,78
70.7691,99
71.0531,164
71.3372,98
71.6213,80
71.9054,87
72.1895,77
72.4736,68
72.7577,98
73.0418,121
73.3259,699
73.61,294
73.8941,344
74.1782,145
74.4622,83
74.7463,65
75.0304,76
75.3145,97
75.5986,54
75.8827,49
76.1668,82
76.4509,82
76.735,84
77.0191,69
77.3032,61
77.5873,60
77.8713,51
78.1554,77
78.4395,77
78.7236,76
79.0077,67
79.2918,69
79.5759,84
79.86,148
80.1441,157
80.4282,59
80.7123,58
80.9964,69
81.2804,73
81.5645,72
81.8486,82
82.1327,75
82.4168,77
82.7009,91
82.985,81
83.2691,54
83.5532,93
83.8373,179
84.1214,137
84.4055,79
84.6895,78
84.9736,71
85.2577,71
85.5418,47
85.8259,58
86.11,54
86.3941,62
86.6782,64
86.9623,75
87.2464,47
87.5305,52
87.8146,57
88.0986,67
88.3827,62
88.6668,58
88.9509,58
89.235,65
89.5191,64
89.8032,52
89.9954,61