File: XRD_csv/OPCM-14D 2.csv
Angle,Intensity
5.99618,839
6.28027,738
6.56436,689
6.84845,630
7.13254,578
7.41664,567
7.70073,468
7.98482,514
8.26891,502
8.553,508
8.83709,496
9.12119,531
9.40528,421
9.68937,459
9.97346,434
10.2576,409
10.5416,392
10.8257,430
11.1098,397
11.3939,388
11.678,388
11.9621,335
12.2462,379
12.5303,345
12.8144,352
13.0985,338
13.3826,317
13.6667,393
13.9507,344
14.2348,289
14.5189,301
14.803,306
15.0871,250
15.3712,312
15.6553,265
15.9394,299
16.2235,243
16.5076,257
16.7917,270
17.0757,249
17.3598,207
17.6439,268
17.928,345
18.2121,404
18.4962,294
18.7803,268
19.0644,233
19.3485,214
19.6326,249
19.9167,212
20.2008,235
20.4848,244
20.7689,866
21.053,384
21.3371,246
21.6212,209
21.9053,219
22.1894,240
22.4735,235
22.7576,227
23.0417,302
23.3258,295
23.6099,231
23.8939,206
24.178,291
24.4621,243
24.7462,215
25.0303,198
25.3144,194
25.5985,252
25.8826,227
26.1667,230
26.4508,401
26.7349,1842
27.019,300
27.303,315
27.5871,468
27.8712,417
28.1553,314
28.4394,242
28.7235,359
29.0076,289
29.2917,353
29.5758,485
29.8599,254
30.144,282
30.4281,261
30.7121,240
30.9962,243
31.2803,237
31.5644,231
31.8485,220
32.1326,372
32.4167,273
32.7008,299
32.9849,209
33.269,193
33.5531,273
33.8372,285
34.1212,869
34.4053,318
34.6894,219
34.9735,214
35.2576,216
35.5417,176
35.8258,187
36.1099,198
36.394,164
36.6781,249
36.9622,173
37.2463,174
37.5303,169
37.8144,156
38.0985,141
38.3826,144
38.6667,187
38.9508,146
39.2349,151
39.519,345
39.8031,176
40.0872,146
40.3713,162
40.6553,142
40.9394,200
41.2235,212
41.5076,163
41.7917,165
42.0758,167
42.3599,249
42.644,448
42.9281,176
43.2122,180
43.4963,169
43.7804,152
44.0644,194
44.3485,126
44.6326,178
44.9167,166
45.2008,163
45.4849,232
45.769,206
46.0531,166
46.3372,154
46.6213,174
46.9054,180
47.1895,451
47.4735,221
47.7576,188
48.0417,144
48.3258,155
48.6099,182
48.894,201
49.1781,176
49.4622,135
49.7463,235
50.0304,167
50.3145,211
50.5986,347
50.8826,272
51.1667,158
51.4508,160
51.7349,160
52.019,150
52.3031,141
52.5872,136
52.8713,139
53.1554,139
53.4395,144
53.7236,123
54.0077,124
54.2917,156
54.5758,165
54.8599,151
55.144,162
55.4281,162
55.7122,134
55.9963,125
56.2804,143
56.5645,129
56.8486,107
57.1327,133
57.4168,164
57.7008,120
57.9849,143
58.269,133
58.5531,148
58.8372,119
59.1213,136
59.4054,160
59.6895,112
59.9736,370
60.2577,152
60.5418,118
60.8259,147
61.1099,120
61.394,136
61.6781,126
61.9622,116
62.2463,112
62.5304,136
62.8145,145
63.0986,102
63.3827,126
63.6668,124
63.9509,111
64.235,171
64.519,141
64.8031,123
65.0872,109
65.3713,113
65.6554,103
65.9395,147
66.2236,120
66.5077,102
66.7918,115
67.0759,99
67.36,116
67.644,113
67.9281,155
68.2122,350
68.4963,119
68.7804,101
69.0645,120
69.3486,87
69.6327,113
69.9168,121
70.2009,122
70.485,96
70.7691,104
71.0531,111
71.3372,107
71.6213,194
71.9054,156
72.1895,107
72.4736,115
72.7577,88
73.0418,111
73.3259,123
73.61,130
73.8941,135
74.1782,114
74.4622,100
74.7463,76
75.0304,93
75.3145,104
75.5986,105
75.8827,151
76.1668,128
76.4509,101
76.735,121
77.0191,93
77.3032,93
77.5873,102
77.8713,122
78.1554,100
78.4395,93
78.7236,87
79.0077,81
79.2918,107
79.5759,97
79.86,103
80.1441,124
80.4282,82
80.7123,101
80.9964,94
81.2804,120
81.5645,125
81.8486,110
82.1327,92
82.4168,100
82.7009,90
82.985,107
83.2691,89
83.5532,109
83.8373,196
84.1214,141
84.4055,97
84.6895,122
84.9736,113
85.2577,91
85.5418,103
85.8259,109
86.11,109
86.3941,115
86.6782,101
86.9623,108
87.2464,99
87.5305,99
87.8146,110
88.0986,101
88.3827,101
88.6668,92
88.9509,82
89.235,93
89.5191,94
89.8032,112
89.9954,93