File: XRD_csv/OPCM-14D 1.csv
Angle,Intensity
6.00018,702
6.38454,601
6.7689,531
7.15326,475
7.53761,432
7.92197,421
8.30633,419
8.69069,394
9.07505,414
9.45941,372
9.84377,369
10.2281,370
10.6125,331
10.9968,377
11.3812,351
11.7656,318
12.1499,292
12.5343,281
12.9186,260
13.303,283
13.6874,434
14.0717,284
14.4561,242
14.8404,244
15.2248,227
15.6092,252
15.9935,197
16.3779,207
16.7622,218
17.1466,207
17.531,231
17.9153,332
18.2997,199
18.684,198
19.0684,206
19.4527,207
19.8371,231
20.2215,196
20.6058,179
20.9902,309
21.3745,175
21.7589,169
22.1433,208
22.5276,203
22.912,231
23.2963,216
23.6807,174
24.0651,194
24.4494,194
24.8338,167
25.2181,169
25.6025,285
25.9869,196
26.3712,294
26.7556,1917
27.1399,272
27.5243,2663
27.9087,625
28.293,197
28.6774,301
29.0617,245
29.4461,533
29.8304,245
30.2148,294
30.5992,217
30.9835,225
31.3679,193
31.7522,193
32.1366,296
32.521,246
32.9053,166
33.2897,187
33.674,225
34.0584,562
34.4428,203
34.8271,185
35.2115,184
35.5958,181
35.9802,171
36.3646,133
36.7489,150
37.1333,141
37.5176,139
37.902,142
38.2863,137
38.6707,137
39.0551,136
39.4394,271
39.8238,119
40.2081,132
40.5925,144
40.9769,138
41.3612,156
41.7456,193
42.1299,123
42.5143,150
42.8987,226
43.283,159
43.6674,146
44.0517,146
44.4361,120
44.8205,133
45.2048,109
45.5892,150
45.9735,141
46.3579,122
46.7423,128
47.1266,375
47.511,166
47.8953,133
48.2797,129
48.664,144
49.0484,132
49.4328,135
49.8171,135
50.2015,171
50.5858,142
50.9702,232
51.3546,118
51.7389,126
52.1233,109
52.5076,137
52.892,125
53.2764,110
53.6607,121
54.0451,103
54.4294,159
54.8138,130
55.1982,128
55.5825,118
55.9669,96
56.3512,118
56.7356,101
57.1199,116
57.5043,120
57.8887,121
58.273,93
58.6574,125
59.0417,111
59.4261,91
59.8105,133
60.1948,117
60.5792,107
60.9635,91
61.3479,93
61.7323,92
62.1166,114
62.501,147
62.8853,91
63.2697,90
63.6541,75
64.0384,178
64.4228,121
64.8071,102
65.1915,107
65.5759,99
65.9602,112
66.3446,90
66.7289,104
67.1133,90
67.4976,82
67.882,119
68.2664,156
68.6507,84
69.0351,110
69.4194,98
69.8038,88
70.1882,103
70.5725,110
70.9569,114
71.3412,110
71.7256,107
72.11,97
72.4943,133
72.8787,85
73.263,96
73.6474,96
74.0318,94
74.4161,83
74.8005,68
75.1848,96
75.5692,99
75.9536,106
76.3379,83
76.7223,96
77.1066,92
77.491,88
77.8753,96
78.2597,117
78.6441,87
79.0284,97
79.4128,85
79.7971,104
80.1815,83
80.5659,88
80.9502,92
81.3346,90
81.7189,98
82.1033,80
82.4877,88
82.872,85
83.2564,94
83.6407,100
84.0251,104
84.4095,74
84.7938,110
85.1782,104
85.5625,90
85.9469,69
86.3312,90
86.7156,83
87.1,66
87.4843,98
87.8687,69
88.253,74
88.6374,80
89.0218,59
89.4061,98
89.7905,94
90.1748,93
90.5592,74
90.9436,96
91.3279,79
91.7123,73
92.0966,79
92.481,77
92.8654,89
93.2497,88
93.6341,78
94.0184,82
94.4028,93
94.7872,74
95.1715,89
95.5559,65
95.9402,94
96.3246,89
96.7089,72
97.0933,81
97.4777,91
97.862,75
98.2464,82
98.6307,100
99.0151,102
99.3995,120
99.7838,69
100.168,84
100.553,66
100.937,79
101.321,73
101.706,81
102.09,84
102.474,84
102.859,69
103.243,64
103.627,69
104.012,85
104.396,88
104.78,74
105.165,70
105.549,75
105.934,77
106.318,78
106.702,98
107.087,82
107.471,88
107.855,84
108.24,65
108.624,82
109.008,91
109.393,79
109.777,66
110.162,73
110.546,72
110.93,63
111.315,65
111.699,75
112.083,90
112.468,70
112.852,87
113.236,80
113.621,73
114.005,92
114.389,68
114.774,88
115.158,98
115.543,60
115.927,80
116.311,55
116.696,80
117.08,79
117.464,84
117.849,94
118.233,119
118.617,92
119.002,93
119.386,78
119.77,93
119.996,75