File: XRD_csv/OPCM- 21 D 1.csv
Angle,Intensity
5.99618,797
6.28027,782
6.56436,667
6.84845,584
7.13254,547
7.41664,540
7.70073,513
7.98482,530
8.26891,453
8.553,474
8.83709,438
9.12119,471
9.40528,422
9.68937,416
9.97346,406
10.2576,416
10.5416,388
10.8257,372
11.1098,365
11.3939,348
11.678,328
11.9621,344
12.2462,334
12.5303,307
12.8144,314
13.0985,271
13.3826,273
13.6667,502
13.9507,347
14.2348,268
14.5189,264
14.803,279
15.0871,228
15.3712,224
15.6553,250
15.9394,240
16.2235,231
16.5076,205
16.7917,203
17.0757,251
17.3598,235
17.6439,228
17.928,276
18.2121,270
18.4962,219
18.7803,212
19.0644,205
19.3485,205
19.6326,209
19.9167,203
20.2008,207
20.4848,189
20.7689,448
21.053,214
21.3371,206
21.6212,174
21.9053,195
22.1894,155
22.4735,175
22.7576,172
23.0417,226
23.3258,189
23.6099,342
23.8939,180
24.178,189
24.4621,185
24.7462,240
25.0303,165
25.3144,185
25.5985,449
25.8826,162
26.1667,198
26.4508,257
26.7349,6295
27.019,209
27.303,286
27.5871,503
27.8712,409
28.1553,186
28.4394,203
28.7235,300
29.0076,179
29.2917,301
29.5758,294
29.8599,273
30.144,257
30.4281,186
30.7121,158
30.9962,169
31.2803,166
31.5644,172
31.8485,153
32.1326,300
32.4167,217
32.7008,222
32.9849,151
33.269,160
33.5531,167
33.8372,193
34.1212,536
34.4053,207
34.6894,165
34.9735,163
35.2576,179
35.5417,111
35.8258,116
36.1099,123
36.394,126
36.6781,130
36.9622,132
37.2463,142
37.5303,136
37.8144,122
38.0985,97
38.3826,123
38.6667,136
38.9508,123
39.2349,135
39.519,973
39.8031,167
40.0872,118
40.3713,145
40.6553,107
40.9394,132
41.2235,136
41.5076,105
41.7917,195
42.0758,122
42.3599,134
42.644,240
42.9281,124
43.2122,133
43.4963,109
43.7804,111
44.0644,134
44.3485,120
44.6326,118
44.9167,88
45.2008,94
45.4849,128
45.769,200
46.0531,115
46.3372,102
46.6213,96
46.9054,142
47.1895,272
47.4735,141
47.7576,116
48.0417,108
48.3258,99
48.6099,124
48.894,107
49.1781,143
49.4622,104
49.7463,114
50.0304,141
50.3145,532
50.5986,226
50.8826,225
51.1667,100
51.4508,90
51.7349,114
52.019,104
52.3031,94
52.5872,112
52.8713,108
53.1554,160
53.4395,99
53.7236,109
54.0077,90
54.2917,111
54.5758,143
54.8599,143
55.144,184
55.4281,119
55.7122,97
55.9963,98
56.2804,100
56.5645,113
56.8486,87
57.1327,104
57.4168,116
57.7008,99
57.9849,88
58.269,107
58.5531,114
58.8372,96
59.1213,105
59.4054,109
59.6895,100
59.9736,1527
60.2577,144
60.5418,102
60.8259,111
61.1099,96
61.394,124
61.6781,100
61.9622,84
62.2463,94
62.5304,112
62.8145,130
63.0986,91
63.3827,82
63.6668,108
63.9509,83
64.235,110
64.519,93
64.8031,98
65.0872,77
65.3713,94
65.6554,108
65.9395,82
66.2236,96
66.5077,79
66.7918,80
67.0759,104
67.36,102
67.644,103
67.9281,158
68.2122,132
68.4963,99
68.7804,86
69.0645,87
69.3486,83
69.6327,82
69.9168,93
70.2009,64
70.485,80
70.7691,73
71.0531,98
71.3372,89
71.6213,89
71.9054,113
72.1895,168
72.4736,120
72.7577,79
73.0418,96
73.3259,93
73.61,89
73.8941,97
74.1782,91
74.4622,93
74.7463,94
75.0304,107
75.3145,86
75.5986,69
75.8827,100
76.1668,103
76.4509,96
76.735,76
77.0191,77
77.3032,78
77.5873,72
77.8713,86
78.1554,77
78.4395,68
78.7236,72
79.0077,100
79.2918,77
79.5759,77
79.86,102
80.1441,92
80.4282,82
80.7123,62
80.9964,75
81.2804,101
81.5645,83
81.8486,90
82.1327,80
82.4168,80
82.7009,83
82.985,66
83.2691,76
83.5532,72
83.8373,112
84.1214,104
84.4055,71
84.6895,104
84.9736,103
85.2577,94
85.5418,78
85.8259,86
86.11,78
86.3941,91
86.6782,75
86.9623,64
87.2464,79
87.5305,99
87.8146,79
88.0986,75
88.3827,123
88.6668,94
88.9509,68
89.235,72
89.5191,68
89.8032,67
89.9954,75